wavelength_nm,flux
369.99863,27.246933
370.08383,32.414337
370.16907,33.184258
370.2543,39.229202
370.33957,47.8846
370.42487,21.812279
370.51016,34.50135
370.5955,20.935968
370.68082,33.108746
370.76617,12.117115
370.85156,13.596377
370.93695,36.28992
371.0224,31.86238
371.10782,29.514467
371.1933,23.984085
371.27875,30.103373
371.36426,16.664614
371.44977,29.51657
371.53534,41.94661
371.62088,29.923805
371.70648,21.07065
371.79205,21.426683
371.8777,12.74125
371.96332,4.774688
372.04898,12.213653
372.13464,10.817888
372.22034,6.2558017
372.30606,18.027262
372.39178,8.67335
372.47757,2.8724844
372.56332,18.118443
372.6491,16.018892
372.73492,24.477783
372.82077,26.765593
372.90665,21.88128
372.9925,40.623623
373.0784,32.323822
373.16434,22.761097
373.25024,31.811047
373.3362,16.734636
373.42218,-0.53891695
373.50818,9.464481
373.59418,22.180769
373.68024,17.948692
373.7663,14.217706
373.85236,12.582982
373.93842,19.612738
374.02457,14.021247
374.1107,7.4300675
374.19684,15.741852
374.28302,9.967742
374.3692,20.097307
374.4554,14.773806
374.54166,2.2181509
374.6279,9.472501
374.71417,29.57112
374.80048,-8.75067
374.88678,14.147496
374.97308,10.035067
375.05945,14.416
375.1458,14.133876
375.2322,14.776868
375.31863,-0.25431135
375.40506,30.818678
375.49152,42.51258
375.57797,17.161057
375.66446,22.854584
375.75098,29.56001
375.8375,25.419016
375.92404,21.449526
376.01062,15.335024
376.09723,18.280416
376.1838,20.067268
376.27045,21.05271
376.35712,28.822248
376.4438,21.653505
376.53046,14.754145
376.61716,10.151099
376.70392,11.240984
376.79065,24.2755
376.8774,28.50415
376.9642,18.295227
377.051,20.652107
377.13785,31.616203
377.22467,27.814787
377.31158,24.373514
377.39844,46.417824
377.48535,28.753166
377.5723,34.413445
377.65924,25.288305
377.74622,39.804962
377.8332,31.210764
377.92023,28.007854
378.00723,33.70684
378.0943,43.91481
378.18134,39.404957
378.26843,25.229725
378.35553,44.08609
378.4427,30.544315
378.52985,34.18805
378.617,39.80263
378.7042,42.411877
378.7914,24.866837
378.87863,20.456778
378.96588,29.123405
379.05316,26.171532
379.14044,19.921598
379.22775,27.987993
379.3151,25.114206
379.40244,21.527353
379.4898,32.98527
379.5772,13.689591
379.6646,7.158604
379.752,22.698977
379.83948,18.148983
379.92694,11.840531
380.01447,8.551063
380.10196,18.630987
380.1895,16.209753
380.27704,7.2371545
380.36462,15.148135
380.4522,21.529205
380.53983,33.788074
380.62747,26.009722
380.71512,23.614376
380.8028,27.387476
380.89047,27.233238
380.9782,35.242115
381.06592,54.580917
381.1537,46.975746
381.24146,32.705482
381.32925,32.000885
381.41705,18.45649
381.50488,30.307192
381.59274,12.255956
381.6806,9.802155
381.7685,14.558456
381.8564,25.229464
381.94437,12.202175
382.03232,13.149434
382.1203,20.132479
382.2083,12.334769
382.29633,1.5574274
382.38434,18.136961
382.4724,7.635423
382.5605,10.460474
382.6486,9.973615
382.7367,12.290253
382.82486,12.047789
382.913,11.131809
383.00116,13.538097
383.0894,24.066273
383.17758,12.534106
383.26584,8.803978
383.3541,20.50978
383.44238,13.7153635
383.5307,4.0531144
383.619,3.051176
383.70734,18.789965
383.79572,20.342518
383.8841,8.873491
383.97247,8.484405
384.0609,9.85692
384.14935,11.974638
384.23782,7.3036094
384.3263,6.0853963
384.41483,18.028059
384.50336,27.346195
384.59186,21.07829
384.68045,24.213648
384.76904,24.44415
384.85764,23.624773
384.94626,21.59299
385.0349,23.123755
385.1236,27.517254
385.21228,22.275057
385.30096,27.765083
385.3897,20.207468
385.47845,11.350226
385.56723,16.788248
385.656,18.16871
385.7448,22.497614
385.83368,19.14594
385.92252,16.633858
386.01138,13.533801
386.10028,8.639334
386.18918,17.230766
386.27814,16.047901
386.36707,19.829473
386.45605,21.7153
386.54504,18.351301
386.63406,25.902094
386.72308,27.169888
386.81216,25.300713
386.9012,23.782333
386.99033,22.870007
387.07944,20.263012
387.16858,14.012229
387.25775,17.95987
387.34692,21.836285
387.43613,21.473976
387.52533,25.04074
387.61456,21.50293
387.70386,19.651857
387.79315,21.877756
387.88242,16.595814
387.97174,17.44848
388.0611,14.135851
388.15045,18.70535
388.23984,19.010925
388.32925,23.347506
388.41867,34.237564
388.50812,25.467875
388.5976,8.941506
388.68707,20.736261
388.77658,21.44157
388.86612,16.06332
388.95566,25.667929
389.04523,20.023973
389.13483,20.43373
389.22443,20.455359
389.3141,25.070011
389.40375,30.197252
389.4934,27.62674
389.5831,22.701302
389.67282,18.883087
389.76254,26.596264
389.85233,12.075624
389.94208,15.459591
390.0319,10.160865
390.1217,23.395174
390.21155,13.435734
390.3014,21.78575
390.3913,11.518894
390.48117,23.196894
390.5711,25.443226
390.66107,21.749548
390.751,24.552584
390.841,20.688742
390.931,23.189962
391.02103,18.15457
391.11108,32.75799
391.20114,39.378345
391.29123,29.805038
391.38135,28.104643
391.47147,31.121683
391.5616,31.509161
391.6518,32.78311
391.74197,29.122417
391.83218,26.78294
391.92242,28.305029
392.01266,23.988691
392.10297,29.449581
392.19324,20.447088
392.28357,18.38825
392.3739,16.815811
392.46426,18.787918
392.55463,22.149164
392.64505,16.357307
392.73544,21.098806
392.8259,19.714376
392.91635,14.747306
393.00684,16.848848
393.09735,17.307598
393.18787,12.484691
393.2784,9.6270895
393.36896,4.6772084
393.45956,2.2804127
393.55017,11.133507
393.6408,6.405853
393.73145,12.224716
393.8221,13.600649
393.9128,19.180878
394.00354,20.125084
394.09427,15.239983
394.185,19.302261
394.2758,26.654718
394.36658,26.019482
394.4574,17.341381
394.54825,13.837894
394.6391,21.060583
394.72998,28.587112
394.82086,25.394102
394.9118,27.273333
395.00275,31.445202
395.0937,31.752592
395.1847,35.771954
395.2757,34.28145
395.36673,33.202927
395.45776,27.72293
395.54883,33.274483
395.63992,33.56422
395.73102,27.15295
395.82217,24.872099
395.91333,19.044277
396.0045,25.46181
396.09567,22.87066
396.1869,16.68218
396.27814,19.313246
396.3694,9.29673
396.46066,19.98398
396.55197,17.305342
396.64328,8.438553
396.73462,14.2649555
396.826,7.640237
396.9174,12.72417
397.0088,21.799591
397.1002,11.061686
397.19165,7.0608473
397.28314,15.616301
397.3746,16.691427
397.46613,18.412796
397.55765,20.401281
397.6492,22.047302
397.74078,25.13986
397.83237,23.28945
397.92398,29.811937
398.01562,38.48002
398.10727,43.77288
398.19894,31.909603
398.29065,37.237804
398.3824,42.54193
398.47412,41.043884
398.56586,36.09254
398.65765,49.077427
398.74945,38.970818
398.84128,32.612198
398.93314,43.757553
399.025,42.89327
399.11688,38.72991
399.2088,48.16591
399.30072,46.226242
399.3927,44.9567
399.48468,43.57327
399.57666,46.91053
399.66867,47.80101
399.7607,41.528725
399.85278,43.073055
399.94485,36.56769
400.03696,50.84279
400.1291,40.725872
400.22122,49.09985
400.3134,50.015865
400.40558,48.51753
400.49777,49.344315
400.59003,41.523014
400.68225,36.109577
400.77454,33.415695
400.86682,44.943436
400.95914,45.25252
401.05145,38.990505
401.14383,43.011356
401.2362,46.43021
401.3286,58.198383
401.42102,51.82032
401.51346,46.360794
401.60593,51.55333
401.69843,52.941372
401.79092,50.78456
401.88345,49.76888
401.97598,42.244556
402.06854,45.21771
402.16116,51.26859
402.25375,46.4709
402.34637,48.738728
402.43903,53.052483
402.5317,45.999325
402.62442,45.208046
402.71713,56.131355
402.80988,54.12692
402.90265,54.9825
402.99542,50.446194
403.08823,41.269997
403.18106,40.88714
403.2739,31.511938
403.36676,30.01669
403.45966,32.890846
403.55255,29.548931
403.6455,35.992924
403.73846,43.70966
403.83142,45.088005
403.9244,55.796436
404.01743,57.157608
404.11047,53.24785
404.20355,51.710583
404.29663,52.156765
404.3897,46.665237
404.48285,42.809837
404.576,41.987045
404.66916,32.841
404.76236,26.078247
404.85556,30.677526
404.9488,40.949574
405.04205,43.15595
405.1353,47.65323
405.2286,50.636272
405.32196,52.180305
405.41528,53.72455
405.50864,44.736046
405.60202,47.865868
405.69543,45.93405
405.78885,49.497612
405.8823,46.26742
405.97577,43.12081
406.06927,39.21145
406.16278,52.372616
406.2563,49.348038
406.34985,35.021435
406.44342,30.462101
406.53705,29.779402
406.63065,31.978622
406.7243,34.494694
406.81793,40.800617
406.91165,45.08423
407.00534,47.52137
407.09906,48.422832
407.1928,37.58456
407.2866,28.721409
407.38037,26.919771
407.47418,41.41968
407.56805,45.241737
407.6619,47.692593
407.75577,41.428963
407.84967,41.982243
407.94357,44.171635
408.03754,38.64254
408.1315,50.822575
408.2255,55.260635
408.3195,59.352463
408.4135,51.311657
408.50757,52.731915
408.60162,49.292725
408.69574,56.50217
408.78986,59.62217
408.88397,64.71348
408.97815,63.441372
409.07233,62.24433
409.16653,60.73085
409.26077,59.348587
409.355,60.219948
409.44928,56.420223
409.54358,61.264584
409.63788,54.578033
409.73224,48.099693
409.82657,46.393948
409.92096,48.63079
410.01532,53.73392
410.10977,45.880974
410.2042,36.80778
410.29868,38.010635
410.39316,46.03514
410.48764,46.825615
410.58218,45.481297
410.67676,48.383934
410.77133,53.731434
410.8659,52.331936
410.96054,51.372837
411.05518,55.942295
411.1498,53.655807
411.24454,50.94426
411.3392,46.91377
411.43393,51.13263
411.52866,52.127724
411.62344,55.15053
411.71826,56.35908
411.81305,50.38822
411.9079,53.592945
412.00275,60.84034
412.0976,47.14054
412.19254,53.26671
412.28745,53.26133
412.3824,52.778652
412.47736,50.27076
412.57236,61.625595
412.66733,56.592186
412.7624,61.342808
412.85742,52.912575
412.95248,54.526493
413.0476,54.306675
413.14273,49.864017
413.23788,46.656116
413.333,42.147083
413.42822,35.10272
413.52344,34.942337
413.61865,45.635838
413.71393,48.792126
413.80917,61.6076
413.90445,56.344967
413.99982,58.815865
414.09512,57.604877
414.1905,61.409878
414.28583,48.942265
414.38126,42.25869
414.4767,30.319895
414.5721,29.505531
414.66763,40.125023
414.7631,47.251904
414.85858,49.88109
414.95416,49.012104
415.0497,55.15962
415.14526,48.0522
415.24088,54.306847
415.33652,48.58254
415.4322,54.35719
415.52783,44.187233
415.62354,48.51949
415.71924,44.794514
415.81494,55.01501
415.9107,45.831837
416.0065,53.440044
416.1023,56.291348
416.1981,54.99547
416.29395,57.00092
416.38983,56.861588
416.4857,53.82952
416.58163,56.514538
416.67755,59.78192
416.77353,50.627846
416.86948,49.300472
416.96548,47.312683
417.06152,52.12068
417.15756,53.26049
417.2536,47.910282
417.3497,42.70273
417.4458,40.70404
417.54193,42.30165
417.6381,42.28048
417.73428,45.400326
417.83047,48.023994
417.9267,46.440464
418.02295,52.53696
418.1192,57.967747
418.21548,55.988815
418.31183,51.51105
418.4081,44.32996
418.5045,45.061863
418.6009,51.328537
418.69727,51.9616
418.79364,49.03376
418.89014,43.258953
418.98657,38.60545
419.08307,47.213005
419.1796,46.769066
419.27612,49.71048
419.37265,53.60071
419.46924,59.049423
419.56583,57.220398
419.66245,53.564888
419.7591,50.146225
419.85577,43.951485
419.95245,39.677555
420.04916,43.43267
420.1459,39.477306
420.2426,37.389137
420.33942,35.801514
420.43622,37.96864
420.53302,46.51066
420.62988,57.35009
420.72675,56.127342
420.82364,60.414627
420.92056,61.34892
421.0175,56.817787
421.1144,51.027206
421.21136,55.735462
421.3084,56.001907
421.40543,56.421337
421.50244,59.196712
421.59952,53.715504
421.69662,48.39817
421.7937,45.52399
421.89087,53.347263
421.98798,58.30803
422.0852,58.379055
422.18237,55.711445
422.2796,56.149746
422.37686,51.915146
422.47412,39.69024
422.57138,33.597015
422.6687,31.213018
422.76605,20.357658
422.86343,18.826527
422.9608,20.489605
423.0582,32.131123
423.1556,40.807045
423.25308,46.271557
423.35052,50.97529
423.44806,46.901157
423.54556,47.0448
423.64307,39.435036
423.74063,41.089005
423.83823,40.403694
423.93585,46.58467
424.03345,47.97635
424.1311,47.345837
424.22876,51.528122
424.32648,57.249237
424.42416,56.471615
424.5219,57.449078
424.6197,64.202065
424.71747,62.579166
424.81528,57.812603
424.9131,54.16166
425.01093,45.55978
425.10883,38.731537
425.2067,32.83149
425.30463,39.055595
425.4026,40.944218
425.50055,38.598694
425.59854,37.907356
425.69653,36.02328
425.7946,53.11118
425.89264,61.87457
425.99066,53.244797
426.08878,42.65437
426.18692,35.655666
426.28506,36.42357
426.3832,44.066196
426.48138,56.014393
426.57965,60.4331
426.6779,64.89182
426.77612,59.729836
426.87442,53.974953
426.97272,53.87565
427.07104,49.23652
427.16937,43.966663
427.26773,31.909079
427.36615,28.494043
427.46454,31.088758
427.563,30.1971
427.66147,38.95166
427.75995,37.641735
427.85846,54.127678
427.95697,58.522522
428.0555,55.519634
428.1541,55.70085
428.2527,48.191048
428.35132,49.950848
428.44995,44.213726
428.54865,53.432064
428.6473,46.38971
428.74603,52.24422
428.8448,49.583817
428.9435,45.07939
429.0423,38.088425
429.1411,39.063446
429.23993,29.20461
429.33878,43.043217
429.43765,45.037636
429.53653,44.719498
429.63544,43.150707
429.73438,51.09068
429.83334,47.313484
429.9323,47.790546
430.03134,32.017967
430.13037,35.13586
430.22943,33.774662
430.32852,34.53378
430.42758,41.87308
430.5267,40.351
430.6259,40.159626
430.72504,36.554832
430.82422,29.343735
430.92343,27.997019
431.02264,30.05857
431.12192,29.746315
431.2212,34.106163
431.3205,35.550953
431.41983,42.47088
431.5192,42.16576
431.61856,51.811913
431.71796,60.576473
431.81738,67.10217
431.9168,67.955025
432.01627,71.337074
432.11578,68.764984
432.21527,63.85855
432.3148,66.020966
432.41437,57.261208
432.51398,49.674156
432.61353,41.65928
432.7132,31.995338
432.8128,37.32432
432.9125,47.213593
433.01215,62.751247
433.1119,68.897865
433.2116,70.749916
433.31137,71.29789
433.4112,70.90596
433.511,70.85848
433.61084,70.918076
433.7107,68.41044
433.81055,64.73209
433.91046,55.461864
434.01035,52.40874
434.1103,46.376335
434.2103,50.6943
434.3103,56.35875
434.4103,58.169533
434.51035,63.880264
434.6104,61.281685
434.7105,62.765186
434.8106,62.012638
434.91074,64.557434
435.0109,70.42407
435.11102,71.43156
435.21124,65.03704
435.31146,55.405617
435.4117,52.22516
435.51196,59.636684
435.61224,58.5411
435.7126,64.35704
435.81293,71.54655
435.91327,59.14913
436.01367,60.947956
436.11407,60.293232
436.2145,73.40594
436.315,71.065605
436.41544,70.62198
436.51596,73.04621
436.61646,78.06531
436.71698,74.86524
436.81757,68.206314
436.91815,68.107414
437.0188,67.08465
437.11945,67.30736
437.22006,63.087784
437.3208,62.952923
437.42148,67.21242
437.52222,50.551758
437.62296,52.624275
437.72372,50.510796
437.82455,50.844128
437.92538,63.432465
438.0262,63.9327
438.1271,61.384983
438.22797,57.028843
438.32892,52.06291
438.42984,42.961323
438.53082,28.909954
438.63177,31.634548
438.73282,41.901836
438.83383,52.878647
438.9349,61.812836
439.03598,51.692276
439.13705,55.88405
439.23822,51.828632
439.33936,58.552303
439.44052,64.519165
439.54175,64.89547
439.64297,63.130455
439.7442,62.278477
439.84546,67.79839
439.94672,66.42806
440.04803,74.4141
440.1494,63.516254
440.2508,60.757076
440.35214,52.68432
440.45355,55.323406
440.555,42.684353
440.65643,34.748657
440.7579,42.414406
440.85944,47.345257
440.96094,50.90936
441.0625,59.364292
441.16406,69.42019
441.26562,69.261955
441.36725,74.2457
441.4689,70.09012
441.57056,60.27895
441.67227,53.810715
441.774,48.022575
441.87567,58.0811
441.97745,71.024345
442.07925,72.277954
442.18106,74.07335
442.28287,73.67631
442.3847,64.79646
442.48657,59.056915
442.58847,58.619434
442.69043,61.585392
442.79233,58.558964
442.89435,57.26648
442.99628,63.29324
443.09833,62.61925
443.20038,62.75443
443.30243,67.51895
443.40448,67.94281
443.50665,61.972267
443.60873,56.76632
443.71094,49.757526
443.81308,57.10516
443.91528,70.54306
444.01752,72.55779
444.11978,76.98602
444.22208,71.176315
444.32437,67.33726
444.42667,64.21255
444.529,58.204334
444.6314,70.296814
444.7338,75.20214
444.83618,76.54671
444.93863,69.70892
445.0411,67.72969
445.14355,72.27836
445.2461,71.55103
445.34863,68.58419
445.45117,66.080315
445.55377,58.2865
445.65634,53.53129
445.75897,45.089497
445.86163,59.563744
445.9643,56.52919
446.067,57.921654
446.16974,59.973274
446.27246,55.202805
446.37524,56.37785
446.47803,64.63971
446.58087,73.293144
446.6837,66.68872
446.78656,65.10713
446.88947,71.67014
446.99237,71.10264
447.0953,69.687325
447.19824,69.603676
447.30127,73.11273
447.40424,72.67857
447.50726,75.59773
447.61035,77.63342
447.71344,70.57032
447.8165,75.87997
447.91962,78.68576
448.0228,80.564804
448.12598,72.63908
448.22916,69.74266
448.33237,65.96704
448.43564,63.75906
448.5389,71.300766
448.64218,73.93801
448.7455,78.28458
448.84882,75.00694
448.9522,80.03596
449.0556,68.34522
449.159,68.05817
449.26245,68.668945
449.3659,77.203476
449.4694,75.88803
449.5729,67.50244
449.67642,66.80694
449.77997,66.941284
449.88354,73.2715
449.98715,76.54025
450.09076,80.17694
450.19443,76.38568
450.2981,75.38406
450.4018,79.35794
450.50552,82.50692
450.60928,86.368484
450.71304,85.08297
450.8168,82.56247
450.92065,83.95218
451.02448,81.341934
451.12833,77.74116
451.23224,79.712425
451.33612,80.30017
451.4401,78.88661
451.54404,77.45789
451.648,80.79415
451.75204,78.88175
451.85605,72.559326
451.9601,75.5289
452.0642,77.81635
452.1683,83.77166
452.2724,83.51697
452.37656,79.545685
452.48077,74.47348
452.58496,73.98232
452.68915,72.250565
452.7934,68.905754
452.8977,60.66379
453.002,59.905636
453.1063,59.491207
453.21063,59.821064
453.31503,66.50286
453.41943,67.331116
453.52383,63.194073
453.62827,59.639748
453.73273,58.91793
453.83722,69.3188
453.94174,73.190315
454.0463,79.55775
454.15082,83.37865
454.25543,78.69987
454.36002,78.19552
454.46466,85.42305
454.56927,78.084236
454.67398,71.47453
454.77872,74.13502
454.88345,73.56999
454.9882,72.785904
455.09296,71.52685
455.19775,71.77746
455.30258,75.70037
455.4074,78.06285
455.5123,74.667854
455.6172,75.226974
455.7221,71.05106
455.82706,73.10153
455.93204,81.00852
456.03702,83.197266
456.14203,80.142075
456.24707,85.37939
456.35214,83.177925
456.45728,81.221725
456.56235,79.32327
456.66754,74.944176
456.77264,74.96721
456.87787,79.86164
456.98306,82.57513
457.08832,85.08322
457.19354,81.67506
457.29883,76.70066
457.40414,78.24364
457.50946,79.0801
457.61484,83.15997
457.7202,84.98477
457.82562,82.76497
457.93106,83.32229
458.03653,77.61468
458.142,74.09646
458.2475,73.6184
458.35303,74.3502
458.4586,74.697426
458.56415,81.21369
458.66977,74.54916
458.7754,76.37751
458.88104,76.89762
458.98672,78.91253
459.09244,83.94485
459.19815,79.64352
459.30386,78.09768
459.40967,76.69112
459.51544,76.27731
459.62125,76.88321
459.7271,75.498146
459.83295,79.45717
459.93887,79.02363
460.04477,77.51342
460.15073,75.79631
460.25668,73.84124
460.3627,75.52913
460.4687,73.218124
460.57477,73.51279
460.68082,77.44331
460.78687,78.31409
460.893,76.64532
460.9991,83.2609
461.1053,87.68075
461.2115,84.21698
461.3177,84.30512
461.42392,82.287636
461.53018,80.02488
461.63647,83.584305
461.74277,81.00906
461.84912,82.856636
461.95547,80.4503
462.06186,79.14514
462.16827,82.56219
462.27472,82.41692
462.38116,84.25283
462.4876,81.03302
462.59415,79.25004
462.70062,81.40748
462.80722,83.48468
462.91376,83.38563
463.02036,86.271965
463.127,84.429924
463.23364,86.90939
463.34033,88.37376
463.44702,86.699295
463.55377,82.02929
463.6605,80.57582
463.76727,82.53635
463.87408,78.7782
463.9809,77.729324
464.08774,74.15906
464.19464,76.548035
464.3015,80.23978
464.40845,81.39088
464.51538,84.07573
464.62238,82.93736
464.72934,74.083664
464.83636,73.470535
464.94342,71.455505
465.05048,71.210365
465.15756,75.97888
465.2647,78.93525
465.3719,77.082405
465.479,77.42057
465.58624,77.7077
465.69342,77.96769
465.8007,76.69024
465.90796,75.33555
466.01523,86.14695
466.12256,88.364365
466.2299,89.72585
466.33725,83.94551
466.44464,82.16499
466.55206,80.098595
466.65952,79.24508
466.76694,74.63634
466.87445,65.89106
466.982,64.35104
467.0895,67.91097
467.19708,78.94604
467.30463,83.025894
467.41226,86.32127
467.51993,77.73185
467.6276,79.15585
467.73526,83.3628
467.84296,85.40641
467.95074,83.299965
468.0585,80.9634
468.16626,77.22441
468.27408,76.43677
468.3819,77.52596
468.48975,82.13469
468.59766,81.33391
468.70557,83.06176
468.81354,85.3137
468.92148,78.821915
469.02945,79.519226
469.13745,81.05837
469.2455,76.640785
469.35358,77.75383
469.4616,83.261734
469.56973,81.70932
469.6779,83.02754
469.78604,86.6538
469.89423,78.37153
470.00244,76.57422
470.1107,74.536804
470.21893,77.09034
470.3272,75.45876
470.43555,69.94783
470.54385,67.43555
470.6522,70.641365
470.7606,75.25922
470.869,73.203094
470.97745,70.59144
471.08588,75.79791
471.1944,77.1832
471.3029,82.49056
471.41144,83.83636
471.51996,82.58097
471.62857,79.7498
471.7372,79.421196
471.8458,80.01578
471.9545,84.084816
472.06317,84.91929
472.17188,88.44982
472.2806,85.67789
472.38934,83.32532
472.49814,81.977715
472.607,81.96936
472.71576,80.63469
472.82465,84.143295
472.93353,80.255936
473.04242,74.81426
473.15137,73.547005
473.26035,76.67706
473.36932,77.4858
473.47833,79.63042
473.58734,78.73266
473.69644,81.511925
473.8055,76.203514
473.91464,77.04101
474.02377,78.84513
474.1329,83.81189
474.2421,79.374916
474.35132,82.62877
474.46054,85.12289
474.56982,79.82671
474.6791,81.26933
474.78842,81.254234
474.89777,85.278656
475.00714,83.21125
475.11652,78.77443
475.22592,82.54207
475.33536,86.22227
475.44482,77.381035
475.5543,77.3902
475.66382,75.321495
475.77335,74.20641
475.8829,80.63324
475.9925,79.29952
476.1021,82.149925
476.21176,80.86415
476.32144,78.12371
476.4311,74.6208
476.54083,76.490685
476.65057,75.82673
476.76035,73.44492
476.87012,69.77297
476.97992,69.89708
477.08978,77.77731
477.19965,77.351906
477.3095,74.34479
477.41943,76.572815
477.5294,76.99046
477.63934,80.49104
477.74936,79.07425
477.85938,77.705154
477.96942,78.93218
478.0795,79.25011
478.1896,77.599525
478.2997,76.91933
478.40985,75.571754
478.52002,70.361244
478.63022,73.12701
478.74042,76.67171
478.85068,76.59662
478.96094,74.75469
479.07123,73.13289
479.18158,75.475174
479.29193,78.745056
479.40228,78.32325
479.5127,82.014084
479.62314,81.24328
479.73358,83.62723
479.84406,85.339165
479.95453,81.14803
480.0651,77.085915
480.17563,77.92032
480.2862,76.122856
480.39682,83.45577
480.50742,81.553154
480.61807,83.108055
480.72876,79.2773
480.83945,84.85225
480.9502,79.99292
481.06094,79.85425
481.17172,82.615845
481.28256,83.547325
481.39337,83.9284
481.50424,81.04149
481.61514,84.85354
481.726,79.70635
481.83698,85.186226
481.9479,83.58341
482.0589,81.90361
482.16992,83.036514
482.28094,85.21308
482.392,78.599396
482.5031,70.98303
482.6142,74.3372
482.72534,79.497375
482.83652,84.52813
482.9477,81.47837
483.05893,80.52211
483.17017,77.980705
483.28143,80.39541
483.39273,74.9196
483.50406,81.089584
483.6154,80.01014
483.72675,82.725235
483.83813,80.72035
483.94955,80.87205
484.06104,79.98851
484.17252,75.08337
484.284,77.84905
484.3955,81.99644
484.50708,78.9439
484.61865,79.53578
484.73022,78.75641
484.84186,87.529785
484.95352,81.2243
485.0652,84.26616
485.1769,84.58907
485.28864,82.56492
485.4004,80.80412
485.51215,84.52295
485.62396,82.59547
485.73578,80.8252
485.84766,77.43815
485.95953,79.05186
486.07144,75.973114
486.1834,63.43414
486.29535,59.357822
486.40732,61.86366
486.51935,69.64018
486.6314,77.86387
486.74347,78.316414
486.85553,78.93154
486.96762,77.42999
487.07977,77.73307
487.19196,73.935295
487.30414,62.278168
487.41635,59.042492
487.52863,66.716
487.64087,73.76063
487.75317,77.20428
487.86554,77.03142
487.97784,74.23114
488.09024,75.99955
488.20264,78.96275
488.31503,79.07787
488.4275,77.35431
488.53998,78.590965
488.6525,77.11956
488.76498,75.52701
488.8776,70.546036
488.99014,72.79942
489.10272,71.03358
489.2154,61.53505
489.32803,55.297245
489.44073,63.978752
489.55347,76.82731
489.66617,86.026886
489.77896,84.5764
489.89175,84.88336
490.00455,82.088135
490.11737,80.84687
490.2303,78.167145
490.34317,82.620865
490.45605,79.24635
490.569,75.665215
490.68198,75.97864
490.79498,77.422386
490.90802,83.3489
491.02106,80.45106
491.13412,77.68596
491.24722,73.667465
491.36035,77.511024
491.47348,75.97041
491.58667,80.24599
491.6999,79.64492
491.81314,79.49327
491.92636,75.27638
492.03964,64.003586
492.15298,55.226418
492.2663,51.132793
492.3797,61.268063
492.49307,71.0318
492.60645,74.9253
492.7199,75.1111
492.8334,77.40161
492.94687,84.069626
493.0604,81.648834
493.17392,81.461395
493.2875,78.81995
493.40106,83.21843
493.5147,77.59714
493.62836,73.73798
493.74203,73.53866
493.85577,74.57549
493.96948,72.72481
494.08325,66.09507
494.19702,70.113365
494.3108,74.64773
494.42465,78.499466
494.5385,82.57346
494.6524,83.35556
494.7663,78.65155
494.88022,82.19314
494.9942,81.88897
495.10822,83.85951
495.22223,85.64183
495.33624,82.46016
495.45035,85.15606
495.5644,80.41748
495.67853,78.99408
495.79266,71.58593
495.90683,59.070423
496.02106,55.15278
496.1353,65.44644
496.2495,79.151825
496.36383,84.291916
496.47812,81.01585
496.59244,81.11003
496.7068,78.28977
496.8212,72.07293
496.9356,72.697235
497.05005,73.248955
497.1645,74.5746
497.279,79.645226
497.3935,81.53262
497.50806,81.011665
497.62262,82.031624
497.7372,82.67516
497.85187,82.21638
497.9665,78.98251
498.08115,75.57892
498.19586,71.802246
498.3106,71.40118
498.42535,63.935276
498.54013,62.83786
498.65494,63.66229
498.76978,70.038925
498.8846,73.22399
498.9995,74.81261
499.1144,76.25395
499.22934,72.94108
499.34433,72.18092
499.45932,73.40835
499.5743,76.62784
499.68936,75.710556
499.80444,73.859924
499.91953,75.34407
500.03467,74.735565
500.1498,71.988205
500.26498,63.91331
500.3802,68.74464
500.49542,69.854485
500.6107,71.76799
500.72598,67.36078
500.84125,64.22927
500.9566,64.25141
501.07196,70.997986
501.18735,73.47073
501.3028,71.72896
501.4182,65.69488
501.5337,63.487446
501.64917,63.01497
501.7647,67.795395
501.88028,65.64278
501.99585,71.14473
502.11142,72.30974
502.22705,72.71297
502.3427,68.301315
502.4584,68.39255
502.57413,69.34811
502.68985,73.811485
502.8056,73.81854
502.9214,67.30863
503.0372,71.9682
503.15308,72.604675
503.2689,76.83701
503.38483,78.95218
503.50073,79.28542
503.6167,77.50036
503.73267,69.89577
503.8487,67.448425
503.9647,66.061745
504.08075,68.26715
504.19684,61.507607
504.31293,57.180244
504.42905,63.033894
504.54523,67.39935
504.66144,70.16527
504.77765,74.82499
504.8939,76.187965
505.01016,72.21136
505.12646,67.4456
505.24277,63.86271
505.35913,67.3105
505.4755,72.593636
505.5919,73.476364
505.70834,73.87299
505.8248,73.563385
505.94125,75.01014
506.05777,78.260414
506.17432,76.12039
506.29086,76.145424
506.40747,75.462616
506.5241,73.94034
506.64072,71.75383
506.75742,67.40668
506.8741,66.67055
506.9908,67.907074
507.10757,68.117294
507.22437,66.25682
507.34116,68.52417
507.458,66.4562
507.57486,67.06055
507.69174,69.956566
507.8087,68.65669
507.92563,68.44375
508.04257,68.287865
508.15958,63.861343
508.2766,60.327812
508.39365,62.478115
508.51074,63.31152
508.62784,62.13734
508.74496,68.59342
508.86212,73.3924
508.9793,70.62289
509.0965,69.71954
509.2137,70.238495
509.331,71.95799
509.4483,73.076355
509.5656,77.56319
509.68295,72.66521
509.80035,68.62238
509.91772,66.829895
510.03516,66.71578
510.1526,63.193726
510.27008,63.502964
510.3876,65.86645
510.50513,68.56104
510.6227,68.71028
510.7403,61.02446
510.8579,64.528824
510.97552,61.656475
511.0932,63.585243
511.21088,64.66623
511.3286,61.94503
511.44638,67.76584
511.56415,66.55588
511.68198,69.459236
511.7998,70.804306
511.91766,68.3416
512.0355,69.347946
512.15344,74.89135
512.27136,70.02847
512.38934,65.665474
512.5074,62.808113
512.62537,60.928337
512.74347,60.955875
512.8615,61.242413
512.9796,63.213753
513.0978,61.64607
513.21594,60.373093
513.3341,65.1742
513.4523,69.36817
513.57056,66.45264
513.68884,68.39955
513.8071,66.58193
513.9254,68.72742
514.0438,60.44051
514.1622,59.163433
514.2806,61.537132
514.399,63.27512
514.51746,62.0637
514.6359,62.44728
514.75446,62.314606
514.873,63.598293
514.9916,63.480007
515.11017,64.50186
515.22876,60.197937
515.3474,62.440403
515.4661,62.047348
515.58484,57.851833
515.7035,61.506336
515.8223,65.59763
515.94104,69.19158
516.05994,71.20978
516.1788,71.34737
516.2976,71.526726
516.4165,68.56608
516.5354,62.79619
516.6544,58.56529
516.7733,51.216255
516.89233,37.88019
517.01135,34.321735
517.1305,41.827618
517.2496,43.910698
517.36865,39.004364
517.4878,35.769886
517.607,36.89929
517.7262,49.349083
517.8454,60.209274
517.96466,58.3837
518.0839,58.981483
518.20325,52.74513
518.3226,45.262367
518.44196,37.579662
518.56134,31.97707
518.6807,35.66
518.8002,48.900455
518.9196,61.256413
519.0392,63.393463
519.1587,64.89367
519.2782,67.65335
519.3978,59.2916
519.51746,61.188213
519.6371,62.240646
519.7567,64.052704
519.8764,67.21253
519.99615,71.8598
520.11584,75.43879
520.23566,69.46729
520.35547,69.01654
520.4753,66.23086
520.59515,58.544704
520.715,52.61138
520.83496,48.867435
520.9549,47.381107
521.0748,48.459633
521.1948,52.35396
521.3148,63.50446
521.43494,74.4676
521.555,81.02147
521.6751,75.78013
521.7952,70.46641
521.9154,70.215096
522.0356,76.499115
522.1558,78.61294
522.27606,83.42835
522.39636,77.61882
522.5166,74.48346
522.63696,70.136154
522.7573,64.90363
522.8777,56.489887
522.9981,61.117027
523.1185,69.51845
523.239,74.28421
523.3595,73.92058
523.48004,69.32391
523.6006,68.606255
523.7211,73.90212
523.84174,79.57525
523.9624,82.76189
524.08307,82.09518
524.20374,81.71399
524.32446,82.23632
524.4452,81.65886
524.566,80.10146
524.68677,82.00502
524.8076,78.988556
524.92847,76.05937
525.0493,77.003365
525.1703,78.16645
525.29114,79.240616
525.4122,78.92274
525.53314,79.53277
525.6542,77.464485
525.7752,77.70826
525.8963,80.96777
526.0174,82.32119
526.13855,83.326385
526.2597,80.73442
526.3809,71.95298
526.5021,66.1884
526.62335,62.0407
526.7446,56.22379
526.8659,57.622185
526.98724,59.489826
527.1086,54.240307
527.23,50.12755
527.35144,56.521915
527.47284,69.2557
527.59436,74.3877
527.7158,74.004425
527.83734,77.097374
527.95886,78.04621
528.08044,85.43834
528.2021,79.7007
528.3237,77.174515
528.44543,72.13018
528.5671,69.17148
528.68884,75.489174
528.81055,80.22602
528.9323,88.00404
529.05414,84.91917
529.17596,85.19515
529.29785,87.09142
529.41974,85.497246
529.5416,83.96388
529.6636,83.85876
529.7855,77.029175
529.9076,73.04763
530.0296,64.415855
530.1517,71.01862
530.27374,75.89701
530.3959,79.21107
530.51794,76.23024
530.64014,83.076324
530.7623,87.50619
530.8846,84.39821
531.00684,84.46797
531.1291,82.35641
531.2514,86.20873
531.3738,86.15789
531.49615,85.72346
531.6185,85.00712
531.74097,82.1082
531.8634,83.10235
531.9859,82.37923
532.1084,83.6602
532.2309,83.68808
532.3535,80.28612
532.4761,77.00658
532.59875,71.51328
532.7213,69.3422
532.84406,70.255356
532.96674,60.14334
533.0895,54.698402
533.2123,62.2981
533.335,76.973465
533.4579,80.05751
533.5807,77.89574
533.70355,81.85179
533.8265,84.76997
533.9494,81.02043
534.0724,78.10522
534.1954,74.56036
534.31836,71.006355
534.4414,75.02682
534.5645,78.972885
534.6876,82.48948
534.8107,77.93028
534.9339,76.41065
535.05707,77.42849
535.1803,78.597015
535.3035,78.70381
535.4268,85.84365
535.5501,84.2879
535.67346,83.72967
535.79675,84.84664
535.92017,86.54884
536.0436,88.10037
536.16705,87.449425
536.2905,85.25563
536.414,83.88939
536.53754,81.547745
536.6611,78.59903
536.78467,78.67505
536.9083,76.48884
537.0319,75.57284
537.15564,71.856575
537.2793,62.982944
537.403,63.213413
537.5268,72.484184
537.6506,82.04827
537.77435,85.18839
537.89825,83.79655
538.0221,82.82294
538.146,81.82696
538.2699,83.95053
538.3939,80.97145
538.5179,77.847694
538.6419,76.164116
538.7659,81.407585
538.89,84.23209
539.01404,82.024734
539.13824,81.684494
539.2623,78.65623
539.3866,77.484604
539.51074,76.700874
539.635,73.06161
539.7593,73.40382
539.8836,69.41029
540.00793,70.195656
540.13226,72.86287
540.25665,78.53536
540.38104,75.8329
540.5055,75.02774
540.63,71.33181
540.75446,63.165527
540.879,65.97355
541.00354,71.292786
541.1281,74.46519
541.25275,71.24709
541.3774,75.00746
541.5021,78.47124
541.6268,81.6831
541.75146,78.86864
541.8762,82.09107
542.00104,84.693886
542.12585,80.76448
542.2507,82.23051
542.37555,77.678665
542.5004,80.7304
542.62537,73.32379
542.75037,77.802086
542.87537,81.26262
543.00037,82.79003
543.12537,70.23427
543.2505,69.28842
543.3756,73.2969
543.5007,75.085266
543.62585,66.34011
543.7511,72.42807
543.8763,75.58463
544.0015,82.25802
544.12683,84.82923
544.2521,84.88618
544.37744,88.207886
544.5028,82.13682
544.6282,79.393326
544.7536,74.46175
544.879,67.04747
545.0045,71.36002
545.13,78.914536
545.25555,82.69041
545.38116,82.387054
545.5067,81.58246
545.6324,81.93006
545.758,79.14272
545.88367,80.62773
546.0094,81.13614
546.13513,80.40659
546.26086,78.97721
546.38666,78.26066
546.5125,78.37744
546.63837,79.04051
546.7643,81.48375
546.8902,83.46986
547.0161,81.81469
547.1421,82.73397
547.26807,82.801765
547.3941,78.72886
547.52014,80.485374
547.64624,81.28995
547.77234,76.01278
547.8985,70.81363
548.02466,73.61359
548.1509,80.26311
548.2771,80.29357
548.4034,77.751366
548.52966,81.56146
548.65594,80.41859
548.78235,84.01872
548.9087,83.49451
549.0351,82.093704
549.1615,81.53646
549.28796,83.43896
549.4145,83.28899
549.541,83.860916
549.6676,81.70383
549.7941,83.60458
549.9208,79.86647
550.0474,80.568
550.1741,81.043915
550.3008,82.87168
550.4275,78.0651
550.55426,81.28572
550.681,82.1798
550.80786,78.77681
550.9347,78.186005
551.0616,79.092285
551.1885,83.06968
551.31537,81.64082
551.4423,74.795715
551.56934,75.282715
551.69635,76.22433
551.82336,78.56557
551.9505,85.99976
552.0776,82.27704
552.2047,86.23483
552.3319,83.27723
552.4591,86.835945
552.5863,82.85962
552.7135,83.02005
552.8408,81.49765
552.96814,75.038956
553.09546,75.50417
553.22284,76.63669
553.3502,80.38948
553.47766,82.98136
553.6051,82.43226
553.7326,82.851654
553.86017,82.022675
553.9877,82.90165
554.1153,81.65423
554.24286,83.80833
554.3705,83.202675
554.49817,85.10181
554.62585,80.992744
554.75354,84.312065
554.88135,83.78823
555.00916,81.54087
555.1369,85.35091
555.2648,86.35014
555.39264,86.011894
555.5205,85.21561
555.64844,82.586296
555.7764,84.01562
555.9044,82.26992
556.0324,82.876495
556.16046,82.33381
556.2885,83.421684
556.4166,80.86472
556.5448,78.6305
556.673,77.47562
556.80115,76.497
556.9293,78.2882
557.0576,76.3355
557.1859,79.47897
557.3142,93.594734
557.4425,108.84659
557.5709,101.89107
557.69934,85.87607
557.82776,81.048355
557.9562,91.4232
558.0847,94.917
558.21326,80.62074
558.34174,81.85227
558.47034,80.19322
558.59894,78.292564
558.7276,76.302345
558.85626,71.79071
558.985,67.34572
559.11365,68.990616
559.24243,74.5281
559.3712,76.45337
559.50006,78.45073
559.62885,78.58146
559.75775,77.39537
559.88666,78.88682
560.01556,78.3743
560.14453,77.19452
560.27356,76.15278
560.4025,78.36891
560.5316,76.291336
560.6607,80.18384
560.7898,85.6262
560.91895,88.910965
561.0481,85.23059
561.17737,88.752464
561.3065,83.85768
561.4358,85.69814
561.56506,80.179016
561.69446,74.04533
561.8238,70.54129
561.9532,77.76186
562.0826,79.08204
562.21204,81.4284
562.34143,80.35447
562.47095,82.56828
562.60046,80.34714
562.7301,75.13733
562.8597,77.40673
562.98926,80.710976
563.1189,83.936005
563.2486,85.80311
563.3783,84.70929
563.50806,86.6545
563.6378,83.519
563.7676,82.77039
563.8974,81.98947
564.0273,80.31361
564.15717,84.491806
564.2871,82.744576
564.41705,82.59816
564.547,82.893715
564.677,82.60867
564.807,83.284805
564.93713,85.12604
565.06726,82.730804
565.1974,84.47593
565.3275,83.44603
565.45764,81.59422
565.5879,81.396095
565.71814,81.78554
565.84845,79.28325
565.9787,79.041435
566.1091,77.88186
566.23944,76.89826
566.3698,79.22756
566.50024,79.09687
566.63074,82.40691
566.76117,84.05313
566.8917,84.69364
567.0223,81.84782
567.15283,82.00569
567.28345,82.57819
567.41406,82.35618
567.54474,85.52991
567.6754,85.59167
567.80615,84.83052
567.9369,83.929665
568.06775,84.53299
568.19855,84.139984
568.3294,80.95191
568.46027,80.72407
568.5912,83.318085
568.7221,84.24281
568.8531,81.74081
568.9841,79.47938
569.1151,79.00406
569.24615,82.10935
569.37726,84.82861
569.50836,82.810776
569.6395,88.30085
569.7707,90.50461
569.9019,80.94503
570.03314,86.040504
570.1644,81.15329
570.2957,80.3162
570.42706,80.1042
570.5584,78.32604
570.6898,81.88605
570.8212,75.77715
570.9527,77.00111
571.08417,73.86002
571.2157,76.104935
571.3472,72.167175
571.47876,76.93176
571.6104,81.83464
571.74207,84.79128
571.87366,85.19605
572.0054,84.79586
572.1371,84.03834
572.26886,84.93191
572.40063,85.278435
572.5325,83.49971
572.6643,85.20424
572.7962,84.98198
572.9281,82.54564
573.06,81.82639
573.192,85.70986
573.324,84.41919
573.456,83.055916
573.5881,82.59778
573.72015,85.62115
573.8523,85.05517
573.98444,84.49396
574.1166,86.39114
574.24884,85.42436
574.38104,83.12021
574.5133,86.12172
574.6456,85.76592
574.77795,85.79369
574.91034,84.502144
575.0427,83.258
575.1752,81.99075
575.3076,87.3185
575.44006,80.67866
575.57263,80.97696
575.70514,81.10938
575.83777,82.8179
575.97034,84.54338
576.10297,85.27799
576.23566,84.78084
576.3683,84.28173
576.5011,83.29382
576.63385,83.8554
576.7666,87.952126
576.8994,84.6629
577.0323,82.11677
577.16516,83.84972
577.2981,84.174545
577.431,83.928604
577.564,85.02613
577.697,85.76758
577.83,84.4824
577.9631,83.223
578.0962,84.82778
578.2294,81.56855
578.3625,79.14802
578.49567,79.88566
578.6289,82.89775
578.76215,81.157906
578.8954,79.70483
579.0287,80.88408
579.16205,80.56885
579.2955,81.54184
579.42883,80.89234
579.56226,82.175896
579.69574,83.19949
579.8292,83.937416
579.96277,86.27609
580.0963,83.80129
580.2299,85.09484
580.3635,87.32932
580.4972,84.77409
580.63086,84.88854
580.7645,84.76439
580.8983,82.13743
581.0321,86.98688
581.1659,86.810135
581.2997,85.64578
581.4336,86.06699
581.5675,87.6834
581.7014,84.36722
581.8353,83.84225
581.96936,84.80685
582.1034,85.622826
582.2374,89.72891
582.37146,88.52002
582.5056,87.62492
582.6398,85.55827
582.7739,87.09507
582.9081,85.26174
583.04236,82.59034
583.17664,88.88578
583.3109,84.80484
583.44525,84.877174
583.5796,85.133385
583.714,85.612526
583.84845,85.48725
583.98285,83.4614
584.1173,85.45594
584.25183,83.62484
584.3864,86.407524
584.521,83.687904
584.65564,84.47254
584.7902,85.569016
584.9249,85.84526
585.05963,83.64056
585.19434,83.22907
585.3291,81.06921
585.46387,83.080086
585.59875,80.67309
585.7335,81.45395
585.86847,80.59284
586.00336,78.46491
586.1383,77.510216
586.2733,79.74388
586.4083,78.75586
586.54333,80.84611
586.6784,83.72708
586.81354,82.13999
586.9486,80.65219
587.08386,83.07291
587.219,82.65069
587.35425,84.55631
587.4895,83.90928
587.6248,79.92851
587.76013,84.478455
587.89545,83.681274
588.0309,84.76833
588.16626,81.38797
588.3017,80.54239
588.4372,82.0212
588.5727,78.519905
588.70825,78.7786
588.8438,76.86808
588.9794,69.68412
589.11505,49.34592
589.2507,41.12864
589.3864,49.908077
589.5221,59.09411
589.6579,58.29403
589.79364,50.404335
589.9295,54.844505
590.0653,62.88805
590.20123,70.59834
590.33716,76.625015
590.4731,79.53182
590.6091,80.71392
590.74506,78.18766
590.8811,78.67655
591.0172,81.093094
591.15326,82.20297
591.2894,79.13397
591.4256,79.91537
591.56177,82.56584
591.698,76.62406
591.8343,77.06009
591.9706,77.73878
592.1069,78.69445
592.2433,80.6334
592.37964,82.23272
592.516,83.75311
592.65247,81.29592
592.78894,78.73002
592.9255,81.23043
593.062,83.37242
593.1986,79.764626
593.3352,81.449356
593.4718,78.637535
593.6085,81.351295
593.74524,83.03416
593.88196,79.19277
594.0187,81.57691
594.15546,83.09966
594.29236,80.41932
594.42914,82.67822
594.56604,79.3373
594.703,83.55693
594.83997,81.868225
594.9769,81.09836
595.1139,83.46336
595.251,82.84959
595.38806,79.37316
595.52515,83.93693
595.6623,78.840546
595.79944,83.49068
595.93665,80.29152
596.0739,78.21897
596.2112,83.19354
596.3485,82.38555
596.4858,84.19383
596.62317,82.77396
596.76056,81.76398
596.898,83.507675
597.03546,83.72237
597.173,79.64702
597.3104,86.49856
597.448,81.7633
597.5856,83.734474
597.7232,84.15876
597.86084,81.994255
597.99854,76.06384
598.1362,80.36571
598.274,83.1331
598.41174,83.37228
598.54956,79.768265
598.6874,78.25376
598.82526,79.93151
598.9632,81.04173
599.1011,79.85127
599.2391,81.120476
599.3771,83.481476
599.5151,83.01069
599.65314,79.30176
599.7912,83.325294
599.9293,81.47624
600.0675,79.44584
600.2057,78.0417
600.3439,79.58708
600.4822,78.002235
600.6205,79.94004
600.7587,79.705475
600.8971,76.5499
601.0355,77.166695
601.1739,77.39496
601.3124,77.36889
601.4508,79.79535
601.5893,77.32795
601.72784,76.83366
601.8664,78.90269
602.005,77.17504
602.1437,76.11115
602.28235,74.83442
602.421,74.11651
602.5597,75.49631
602.6985,76.96372
602.8373,78.26805
602.97614,79.15559
603.115,77.385086
603.25385,76.73034
603.39276,79.302
603.53174,79.00567
603.6707,81.9643
603.8097,80.872215
603.9488,78.628044
604.0878,77.99386
604.2269,78.802704
604.3661,77.86169
604.5053,78.22155
604.6445,79.34828
604.78375,79.33917
604.923,80.33556
605.0623,80.94428
605.20166,80.43839
605.341,80.47022
605.4804,79.40574
605.6199,79.30124
605.75934,78.56784
605.8988,79.16672
606.0384,78.56372
606.1779,79.26266
606.3175,79.8259
606.45715,79.373055
606.5968,79.10539
606.73645,74.964
606.8762,74.09245
607.016,76.947464
607.15576,78.941154
607.29553,78.13777
607.4354,80.204735
607.5753,80.778595
607.7152,80.8175
607.85516,81.15317
607.9952,79.6971
608.13513,78.314514
608.2752,76.767
608.4153,78.22446
608.55536,80.122215
608.6955,77.61607
608.8357,77.234055
608.97595,77.97852
609.11615,79.090515
609.2564,76.17078
609.3967,77.669716
609.53705,77.84277
609.6774,79.05549
609.8178,80.03729
609.95825,79.00971
610.09875,77.30715
610.2392,79.79217
610.37976,75.011375
610.5203,70.85798
610.6609,72.2441
610.8015,77.96267
610.9422,78.35675
611.0829,80.52975
611.2236,77.28095
611.3644,80.1583
611.5051,78.60441
611.64594,78.923775
611.7868,79.437874
611.9277,79.691925
612.0686,77.80201
612.2096,78.21707
612.3505,71.18454
612.4916,67.42068
612.6326,71.41753
612.7737,76.83514
612.9148,76.99469
613.05597,77.44005
613.19714,77.70183
613.3383,78.58775
613.4796,80.39079
613.62085,79.35838
613.76215,74.91524
613.9035,70.33856
614.04486,70.451294
614.1863,72.51121
614.32776,75.99917
614.4692,76.98082
614.6107,77.017624
614.75226,80.31671
614.8938,79.40582
615.0354,78.31684
615.17706,78.538734
615.3187,77.84677
615.4604,76.29019
615.6022,78.60512
615.7439,78.742966
615.8857,75.73158
616.0275,74.97295
616.1694,75.30335
616.3113,68.193375
616.45325,61.657967
616.59515,63.768547
616.7372,65.99673
616.8792,74.80983
617.02124,71.3792
617.1633,69.645874
617.3055,69.49126
617.44763,71.82068
617.5898,73.8514
617.73206,75.95793
617.87427,76.699234
618.01654,77.12946
618.1589,77.01781
618.3012,78.33838
618.4436,78.130035
618.58606,77.705696
618.72845,80.17187
618.871,76.682495
619.0135,78.53393
619.15607,74.59201
619.29865,73.70591
619.4412,70.97825
619.58386,72.49559
619.72656,76.86579
619.86926,77.605484
620.012,78.165794
620.1548,76.47732
620.2976,74.48255
620.4405,75.05963
620.5834,77.67403
620.72626,76.867065
620.8692,79.16809
621.01215,78.450325
621.15515,77.62011
621.2982,78.411224
621.4413,75.489624
621.5844,73.729095
621.72754,74.04351
621.8707,72.80901
622.0139,74.02789
622.15717,77.31472
622.3004,76.05343
622.4437,75.10121
622.5871,78.62856
622.73047,75.958
622.8739,77.58098
623.0173,75.00947
623.16077,72.89936
623.3043,72.785995
623.4478,70.81822
623.59143,73.57857
623.735,76.4019
623.8786,77.522995
624.02234,78.28661
624.166,76.194
624.30975,75.83701
624.4535,74.60439
624.5973,72.9936
624.74115,72.31946
624.885,74.49438
625.02893,75.046646
625.17285,75.545364
625.3168,73.41372
625.4608,71.664314
625.60486,71.76705
625.7489,72.21394
625.893,72.20278
626.0372,70.58769
626.18134,71.62602
626.32556,73.00697
626.4698,75.55066
626.614,78.36897
626.75836,77.39093
626.90265,75.41045
627.047,77.2255
627.1914,77.45355
627.3358,78.080345
627.48035,78.231544
627.6248,77.054565
627.76935,74.9211
627.91394,72.972984
628.0585,72.63961
628.2032,73.29363
628.3478,74.14483
628.49255,73.66739
628.63727,76.52421
628.78204,75.731445
628.9268,76.72478
629.07166,77.838844
629.2165,78.28559
629.36145,75.65124
629.50635,74.09525
629.6513,76.88467
629.79626,74.79311
629.94135,72.58012
630.0864,74.74149
630.2315,71.58809
630.37665,75.83164
630.52185,68.83949
630.667,72.262215
630.81226,76.18436
630.9575,77.41477
631.1028,77.618454
631.24817,76.62531
631.3935,76.46833
631.53894,76.81269
631.6843,71.59343
631.8298,75.41823
631.9753,71.77942
632.12085,71.30875
632.2664,75.61251
632.412,74.50013
632.5577,76.267845
632.7033,77.28157
632.849,76.53705
632.99475,75.74725
633.1405,74.06413
633.2863,76.50781
633.4322,75.280075
633.578,76.45096
633.72394,74.861336
633.8699,72.48331
634.0158,73.268936
634.16187,72.37231
634.3079,75.92221
634.454,74.95794
634.60004,73.27141
634.7462,75.73557
634.8924,75.74885
635.0386,76.43343
635.1848,76.58202
635.3311,76.38722
635.4774,76.69077
635.6237,74.446815
635.77014,75.00151
635.9165,74.63499
636.063,74.02802
636.2094,73.900856
636.35596,72.52145
636.5025,72.009224
636.64905,71.91081
636.7957,73.73956
636.9423,74.82957
637.089,75.497795
637.2357,76.3128
637.38245,75.26613
637.52924,76.076385
637.6761,76.640564
637.8229,76.68145
637.9698,77.52198
638.1167,76.601135
638.2637,75.36854
638.41064,75.19026
638.5577,74.62637
638.7047,74.699905
638.8518,76.56013
638.9989,76.358894
639.14606,76.7664
639.2933,77.447464
639.4405,74.97396
639.5877,71.708405
639.735,72.06956
639.8823,73.18356
640.02966,76.0713
640.17706,71.0838
640.3245,69.50511
640.4719,71.5086
640.61945,73.5751
640.76697,75.63863
640.9145,73.83103
641.06213,71.34589
641.2097,72.64383
641.3574,71.552086
641.50507,72.6165
641.65283,72.091705
641.8006,73.875885
641.94836,74.387856
642.09625,75.05976
642.2441,73.240654
642.39197,70.35332
642.5399,73.918434
642.68787,73.815575
642.8359,76.93843
642.98395,76.58538
643.13196,75.11791
643.2801,74.74278
643.4282,72.219
643.5764,74.896576
643.7246,75.79474
643.87286,75.68162
644.0211,72.67043
644.16943,69.48455
644.31775,70.38276
644.4662,75.204765
644.61456,76.27168
644.763,75.71088
644.9115,76.51277
645.06,74.833305
645.20856,71.98703
645.3571,71.77467
645.50574,72.53616
645.6544,76.15594
645.8031,73.804214
645.9518,74.46964
646.1005,76.04678
646.2493,76.432495
646.39813,71.17809
646.547,69.73752
646.6959,70.89704
646.84485,72.54355
646.9938,76.226685
647.14276,74.75465
647.2918,73.23273
647.44086,74.057465
647.58997,71.99579
647.73914,73.85729
647.8883,75.15552
648.0375,76.41157
648.18665,76.19943
648.33594,73.39598
648.4852,73.66759
648.63464,73.548
648.784,74.84995
648.9334,77.94889
649.0828,75.740944
649.2323,75.18272
649.3818,74.26321
649.5314,71.43192
649.6809,65.589554
649.8305,63.26247
649.98016,64.49088
650.1298,69.33013
650.2796,72.92283
650.4293,72.73462
650.5791,74.96381
650.7289,75.18582
650.8788,75.07283
651.0287,75.05021
651.1786,75.0889
651.32855,75.73855
651.4785,76.33214
651.62854,75.09845
651.7786,74.687195
651.9287,73.0497
652.07886,72.96123
652.229,74.57076
652.3792,74.81831
652.5294,76.300316
652.6797,76.21363
652.83,74.60091
652.98035,75.66285
653.13074,75.998245
653.2811,73.75817
653.4315,74.77289
653.58203,73.501274
653.73254,74.07544
653.8831,76.48364
654.0337,74.417175
654.18427,75.05998
654.33496,75.14773
654.48566,75.13705
654.63635,72.99297
654.7871,72.53365
654.93787,73.86195
655.08875,71.74938
655.23956,75.405685
655.39044,74.863106
655.5414,72.63125
655.6923,73.4243
655.8434,73.71239
655.9944,71.54587
656.14545,72.144264
656.2965,67.83132
656.44763,60.791126
656.5988,56.773327
656.75006,60.884563
656.90125,69.243515
657.05255,70.75788
657.20386,73.33055
657.3552,72.21449
657.5066,71.1098
657.658,72.80723
657.80945,72.97758
657.96094,73.912476
658.1124,74.33495
658.26404,74.31225
658.4156,74.03657
658.56726,74.317116
658.7189,73.55736
658.87054,74.67008
659.02234,74.12142
659.1741,74.70635
659.32587,74.6203
659.47766,70.56736
659.6295,70.11974
659.78143,69.93257
659.9334,73.52138
660.0854,74.44609
660.2374,72.917244
660.3894,73.81387
660.5415,74.196175
660.6936,75.04626
660.84576,75.011375
660.9979,73.004196
661.15015,72.22287
661.3024,73.42286
661.4547,73.69088
661.60706,75.03848
661.7594,74.926506
661.91174,75.40221
662.0642,75.883316
662.2167,74.79734
662.3692,74.65898
662.5217,74.93692
662.67426,74.6512
662.82684,73.27835
662.97955,73.01185
663.1322,73.81589
663.2849,73.85197
663.4376,73.222496
663.59045,71.138725
663.7433,70.89139
663.8961,72.750275
664.04895,73.04798
664.2019,73.8864
664.35486,74.8714
664.5079,72.59295
664.6609,72.470215
664.8139,73.82115
664.96704,73.14207
665.1202,74.03309
665.2733,74.04837
665.4265,75.50847
665.5798,74.456635
665.73303,74.03443
665.88635,73.55964
666.0397,75.94723
666.19305,74.27044
666.3465,74.73679
666.49994,71.59412
666.65344,70.974434
666.80695,70.437416
666.9605,71.59377
667.1141,72.92986
667.2677,75.31774
667.4214,73.154755
667.5751,74.76563
667.7288,73.59407
667.88257,73.15823
668.0364,70.24645
668.19025,71.044846
668.3441,72.32054
668.498,74.359344
668.652,73.87671
668.8059,73.978195
668.95996,75.7144
669.114,73.61507
669.26807,74.11928
669.42224,73.69886
669.57635,74.317154
669.7306,73.64791
669.88477,71.31607
670.03906,70.36663
670.19336,72.80381
670.3477,73.35439
670.5021,74.35217
670.65643,72.7477
670.8109,72.12468
670.9654,74.46589
671.1199,72.28874
671.2745,75.69138
671.429,72.277504
671.5836,72.43625
671.7383,71.50321
671.89294,70.12779
672.0477,68.51822
672.2025,69.949844
672.3573,72.5219
672.5121,73.485695
672.667,72.55195
672.8219,71.57059
672.9768,73.253525
673.1318,71.35403
673.2868,73.024635
673.44183,72.25762
673.597,72.21588
673.7521,72.87133
673.9072,72.97507
674.0624,72.0799
674.21765,74.78162
674.3729,75.85179
674.5282,74.282234
674.68353,72.76649
674.8389,72.14224
674.99426,72.596954
675.1498,71.6582
675.30524,71.29123
675.46075,70.60173
675.61633,70.45499
675.77185,71.67321
675.9275,71.40488
676.0831,72.40116
676.23883,73.49403
676.3946,73.61054
676.55035,73.2153
676.7062,73.41677
676.86194,73.80602
677.0178,71.40391
677.1737,72.163994
677.3297,72.06211
677.48566,72.48941
677.6417,72.102905
677.7977,73.14714
677.9538,74.08161
678.11,73.59336
678.2661,74.27664
678.4223,73.84946
678.5785,72.21955
678.7348,71.50216
678.8911,72.41219
679.0474,71.90089
679.2038,73.20344
679.3602,72.31653
679.51666,71.82973
679.67316,71.275215
679.8297,73.209625
679.9862,72.29961
680.1428,72.52626
680.29944,71.59747
680.4561,72.78613
680.6128,72.2613
680.76953,72.42038
680.92633,70.97246
681.0831,71.58921
681.2399,70.687836
681.39685,72.030685
681.5538,71.546326
681.7107,73.391304
681.8677,71.68294
682.0247,71.132065
682.18176,69.79946
682.33887,72.496475
682.496,70.5485
682.6532,71.997215
682.81036,71.27036
682.96765,71.66865
683.1249,70.15158
683.2822,70.3982
683.4396,70.36104
683.5969,69.93954
683.75433,71.77829
683.9118,69.74522
684.06934,69.0692
684.22687,69.181526
684.3844,68.95976
684.54205,68.52262
684.69965,68.10478
684.8573,70.08546
685.015,71.561035
685.1728,72.51909
685.33057,71.1175
685.4884,70.75469
685.64624,70.960014
685.80414,69.71098
685.96204,68.26618
686.12006,68.98454
686.2781,69.25186
686.4361,68.56774
686.5942,69.0028
686.7523,69.22741
686.91046,71.453186
687.0686,70.73123
687.22687,68.91445
687.38513,70.342064
687.5434,70.95882
687.7017,68.8937
687.8601,69.716965
688.0185,70.6505
688.17694,70.95812
688.3354,69.42069
688.49396,67.90931
688.65247,67.830795
688.81104,68.40247
688.96967,70.160225
689.1283,70.12934
689.28705,70.91108
689.44574,71.308784
689.60455,70.37566
689.7633,70.42257
689.9222,70.048004
690.08105,70.65808
690.24,70.301
690.3989,70.068016
690.5579,69.22533
690.7169,70.58186
690.87604,69.774605
691.0351,69.54434
691.1942,71.01621
691.3534,70.06847
691.5126,70.5861
691.6719,69.90597
691.8312,69.63337
691.9905,69.05618
692.1498,70.181755
692.3092,69.956566
692.4686,69.12011
692.6281,70.43036
692.7876,70.42142
692.94714,69.87743
693.10675,69.41048
693.26636,70.28742
693.42596,69.62926
693.5857,70.89185
693.7454,70.97636
693.90515,70.21024
694.06494,70.6796
694.22473,70.82557
694.38464,69.854744
694.54456,71.58908
694.70447,70.31039
694.8645,69.3803
695.02454,69.53581
695.1846,71.58803
695.3446,72.01858
695.50476,69.947426
695.6649,69.593445
695.82513,70.72179
695.98535,69.18574
696.1456,69.19109
696.30597,70.71523
696.4663,71.02194
696.6267,70.65598
696.7871,71.658325
696.9476,70.6711
697.10803,70.93566
697.2686,70.57176
697.4292,69.851524
697.5898,71.20836
697.7504,70.639656
697.91113,67.999466
698.07184,66.54322
698.23254,67.37009
698.3934,66.52475
698.5542,69.8969
698.7151,69.51798
698.876,68.8151
699.0369,68.53986
699.1979,68.16317
699.3589,68.34371
699.51996,69.812004
699.681,69.33216
699.84216,70.28463
700.0033,69.453766
700.16455,68.6034
700.3258,69.56446
700.48706,68.9977
700.6483,67.64234
700.8097,68.17359
700.97107,68.23763
701.1325,69.72335
701.294,69.79542
701.45544,69.72585
701.617,69.05031
701.77856,66.5285
701.9402,66.03238
702.10187,67.75794
702.26355,69.89431
702.42523,69.308815
702.58704,66.96322
702.7488,66.70479
702.91064,68.0288
703.0725,69.37234
703.23444,69.22559
703.39636,68.50799
703.55835,69.788925
703.72034,70.045784
703.88245,68.186386
704.0445,67.348076
704.20667,67.180435
704.3688,70.18467
704.531,70.86943
704.69324,71.030495
704.8555,69.86016
705.0179,70.80308
705.18024,69.76429
705.3426,70.57986
705.505,69.26071
705.6675,67.65436
705.82996,68.10745
705.99255,69.71096
706.15515,69.33505
706.31775,68.686226
706.48035,69.08847
706.64307,68.42884
706.8058,69.3451
706.96857,68.8065
707.1314,66.1978
707.29425,68.40545
707.4571,67.39241
707.62,69.81836
707.78296,68.363884
707.9459,68.397736
708.109,69.22278
708.2721,71.0828
708.4352,67.46653
708.59827,69.58639
708.7615,66.632965
708.9247,65.86695
709.08795,67.53598
709.2513,68.11141
709.4146,68.0345
709.57794,68.394714
709.74133,68.75512
709.9048,69.995895
710.06824,67.683
710.2318,69.94094
710.3954,67.90125
710.55896,69.12644
710.72253,69.340645
710.8862,68.67328
711.0499,68.57015
711.2137,68.30545
711.3775,67.7984
711.5413,67.920876
711.7052,68.140594
711.869,68.139824
712.03296,68.778015
712.19696,69.83106
712.36096,67.01541
712.525,66.99802
712.6891,66.57514
712.8532,67.59589
713.0174,67.859344
713.1816,67.79309
713.3458,66.59505
713.5101,66.14752
713.6744,66.66907
713.83875,67.71393
714.0031,67.80657
714.16754,68.4181
714.33203,68.23842
714.4965,68.62928
714.661,67.154625
714.8256,65.81198
714.99023,65.669205
715.1549,64.19586
715.3196,64.7919
715.4843,66.594025
715.64905,67.61983
715.81384,67.8161
715.9787,66.66801
716.1436,67.660645
716.3085,68.62879
716.4735,68.29055
716.6385,68.007835
716.80347,67.2035
716.96857,66.221634
717.13367,66.14358
717.2988,69.079926
717.464,67.101845
717.6292,67.06125
717.7945,67.71343
717.9598,68.67219
718.1251,66.460106
718.29047,67.77526
718.45593,65.73186
718.62134,65.38856
718.7868,67.11218
718.95233,65.72324
719.1179,62.591915
719.28357,63.573746
719.44916,66.457756
719.61487,66.00326
719.7806,65.58568
719.9463,66.377975
720.1121,66.6347
720.27795,68.17312
720.4438,67.45538
720.60974,66.187225
720.77563,66.52262
720.94165,65.95503
721.10767,63.263855
721.27374,64.35561
721.4398,66.44664
721.60596,67.33044
721.7721,66.95587
721.93835,67.85311
722.1046,67.17376
722.2709,66.723076
722.4372,66.774666
722.6036,66.35074
722.76996,65.877304
722.9364,65.54869
723.1029,67.181984
723.2694,66.06104
723.436,67.04745
723.6026,67.72371
723.7692,67.31456
723.9359,66.98089
724.1026,64.16854
724.26935,67.32048
724.43616,68.11621
724.60297,67.6885
724.76984,67.48132
724.9367,66.28114
725.10364,67.59636
725.2706,67.2935
725.4377,67.56086
725.60474,66.6566
725.77185,66.87418
725.93896,65.38152
726.10614,66.51377
726.2733,67.25228
726.4406,66.68973
726.6079,66.617386
726.77527,66.480965
726.94257,66.24015
727.11,66.94628
727.27747,66.96617
727.44495,65.75963
727.6124,64.38708
727.77997,67.29456
727.94763,68.591995
728.11523,68.222305
728.2829,67.16299
728.45056,66.912865
728.61835,66.947876
728.78613,66.276985
728.954,66.35527
729.1218,67.33613
729.28973,66.74993
729.4577,64.68409
729.6257,64.11602
729.7937,64.41573
729.9618,66.5211
730.1299,66.5628
730.298,66.61757
730.4662,67.40737
730.6344,67.065704
730.8026,66.89004
730.97095,66.36523
731.1393,66.55589
731.3076,65.39417
731.4761,65.87268
731.6445,65.3687
731.813,65.320496
731.9815,66.12277
732.1501,66.18629
732.3187,65.51014
732.4873,66.56357
732.656,66.67999
732.8247,65.31656
732.99347,62.569466
733.16223,65.647896
733.3311,67.62756
733.5,65.95589
733.6689,65.974525
733.8378,66.38761
734.00684,66.29798
734.1759,66.527756
734.345,66.31153
734.51404,66.17165
734.6832,66.24284
734.8524,64.886826
735.0216,65.22161
735.19086,65.41615
735.3602,65.73341
735.52954,66.11263
735.6989,64.996124
735.8683,63.62742
736.0378,63.13805
736.2073,63.706223
736.37683,64.56096
736.5464,63.66528
736.716,64.25698
736.8857,65.83418
737.05536,66.19673
737.2251,65.92693
737.3949,68.54337
737.5647,66.53552
737.7345,66.78482
737.9044,67.41592
738.07434,66.18761
738.2443,66.78557
738.4143,65.76478
738.58435,65.83444
738.75446,64.92407
738.92456,63.819412
739.0947,63.204533
739.26495,62.518562
739.4352,63.78539
739.60547,65.20533
739.77576,64.14801
739.94617,65.24476
740.1166,64.705345
740.287,64.12277
740.45746,63.819347
740.628,63.9181
740.7985,66.095314
740.9691,65.2457
741.1398,64.28379
741.3104,62.960957
741.48114,62.90731
741.6519,63.836075
741.8227,63.840492
741.9935,64.025604
742.1644,64.423225
742.3353,63.965645
742.5062,63.953228
742.67725,62.38229
742.84827,63.48239
743.01935,65.998505
743.1904,65.99898
743.3616,64.46019
743.5328,64.57457
743.704,65.270386
743.87524,65.152855
744.0465,65.412315
744.2179,65.33837
744.3893,64.76262
744.56067,64.247025
744.7322,62.873333
744.9037,61.77072
745.0752,63.5317
745.24677,64.65474
745.4184,65.40963
745.59,65.35581
745.7618,66.83082
745.9335,65.78659
746.1053,65.54934
746.2771,65.01327
746.4489,63.654804
746.62085,62.804424
746.7928,62.800625
746.9647,65.01794
747.1368,65.38716
747.30884,65.41906
747.4809,65.22686
747.6531,65.41633
747.82526,65.36464
747.99744,63.973724
748.1697,64.69323
748.342,65.39617
748.5143,64.13984
748.68665,65.213
748.8591,64.62363
749.03156,65.31614
749.20404,64.78665
749.3766,63.945038
749.54913,63.310383
749.72174,60.897434
749.8944,60.867737
750.0671,62.36859
750.23987,64.10477
750.4126,65.22684
750.5854,64.85954
750.75824,64.36352
750.93115,63.832855
751.10406,64.81567
751.27704,61.617264
751.4501,61.464424
751.6231,61.300934
751.7962,64.13447
751.9693,65.9174
752.14246,65.76317
752.3157,63.86838
752.4889,64.776024
752.66223,62.87399
752.8356,64.388824
753.0089,64.94987
753.1823,63.995502
753.3558,63.09902
753.52924,63.458584
753.70276,64.25222
753.87634,64.699844
754.0499,64.36645
754.2236,65.555
754.3973,63.95098
754.571,64.61982
754.74475,64.50406
754.9186,64.14253
755.0924,65.02382
755.2663,63.989872
755.44025,64.41786
755.6142,64.336525
755.7882,62.7652
755.9623,63.697
756.13635,63.811287
756.3104,64.32568
756.4846,63.849804
756.6588,63.525917
756.8331,64.40711
757.0074,63.994125
757.1817,64.28579
757.3561,63.351887
757.53046,63.22477
757.70496,64.14098
757.8794,64.69181
758.05396,65.06054
758.2285,64.487045
758.40314,65.00612
758.57776,64.99742
758.75244,62.206356
758.9272,61.080017
759.1019,62.100105
759.27673,62.469322
759.4516,62.95483
759.6265,63.858566
759.8014,64.11279
759.97644,63.52358
760.1514,64.35224
760.3265,62.38496
760.5016,59.300434
760.6767,62.168453
760.85187,60.65164
761.0271,62.52427
761.20233,61.426647
761.3776,58.581394
761.553,63.30934
761.72833,63.271267
761.90375,62.260845
762.0792,62.33251
762.2547,61.285408
762.43024,61.67455
762.60583,63.638462
762.78143,62.163094
762.9571,64.06593
763.13275,61.039215
763.30853,65.58452
763.48425,63.21084
763.6601,63.066807
763.836,62.562164
764.01184,63.77161
764.18787,61.75123
764.36383,62.3803
764.53986,64.40233
764.7159,64.08749
764.89197,64.974945
765.0681,64.3765
765.2443,63.57756
765.42053,61.63753
765.5968,63.197796
765.7731,63.00154
765.94946,62.743313
766.12585,63.12543
766.30225,60.927135
766.47876,62.202084
766.6552,61.856598
766.8318,56.54809
767.0084,58.794846
767.185,63.476658
767.3617,63.01144
767.5384,63.15425
767.71515,62.764824
767.89197,62.6853
768.0688,63.404896
768.24567,63.159325
768.42255,63.94658
768.5995,63.472557
768.7765,62.339233
768.95355,62.036583
769.1306,63.42865
769.30774,63.591637
769.4849,61.1563
769.6621,62.65309
769.83936,64.486275
770.01666,63.823627
770.194,60.934593
770.37134,59.67912
770.5487,61.815414
770.7262,64.1663
770.9037,62.906143
771.0812,63.492073
771.2587,62.40186
771.4364,62.418644
771.614,63.991253
771.7917,62.802708
771.9694,62.99336
772.1472,62.52323
772.3251,62.553062
772.50287,62.527534
772.6808,62.27782
772.85876,62.818665
773.03674,61.469223
773.2147,62.794342
773.39276,63.348923
773.5709,62.14948
773.749,63.428574
773.9272,62.863235
774.1054,62.485573
774.2837,62.671642
774.46204,61.93971
774.6403,61.32063
774.8187,62.067326
774.9972,59.95199
775.17566,59.894047
775.3541,59.472363
775.5327,62.730198
775.7113,61.86885
775.88995,62.686462
776.0686,63.49684
776.2473,61.39642
776.4261,63.86357
776.60486,62.990982
776.7837,63.090984
776.9626,63.324375
777.1415,63.90842
777.32043,63.38412
777.4995,62.550938
777.6785,62.577496
777.8576,62.81306
778.03674,62.32314
778.21594,61.974796
778.39514,58.613052
778.57434,60.82503
778.75366,62.452843
778.933,62.483887
779.1124,62.203804
779.2918,62.697933
779.4713,60.96819
779.65076,60.127563
779.8303,63.700333
780.0099,61.05246
780.1895,60.790176
780.3692,62.215317
780.5489,61.026096
780.72864,61.52622
780.90845,62.129086
781.08826,61.332558
781.2681,62.072517
781.44806,61.442345
781.62805,61.45038
781.808,61.49512
781.98804,62.16912
782.1681,61.524372
782.34827,59.432854
782.52844,61.87814
782.7086,62.676685
782.88885,63.743546
783.06915,61.491776
783.24945,61.78108
783.4298,60.23389
783.6102,57.96042
783.7907,59.05363
783.9712,60.61274
784.15173,60.297127
784.33234,60.629353
784.51294,59.731155
784.6936,61.86826
784.8743,62.17643
785.05505,62.255882
785.23584,62.635857
785.4166,60.341373
785.59753,62.693565
785.77844,62.202038
785.95935,63.701054
786.1404,61.965275
786.3214,62.588432
786.5025,62.75602
786.68365,63.343803
786.8648,61.60668
787.046,61.542664
787.22723,61.46781
787.40857,61.267418
787.58984,60.546432
787.77124,61.200024
787.95264,61.643757
788.1341,60.160824
788.31555,60.679478
788.49713,61.63596
788.6787,61.873642
788.8603,61.609158
789.042,61.605907
789.2237,61.455498
789.4054,61.35689
789.5872,60.41095
789.76904,60.946747
789.9509,60.852802
790.1329,60.752705
790.3148,61.57818
790.49677,60.704952
790.67883,61.660576
790.8609,60.224384
791.043,60.15958
791.2252,61.80934
791.4074,62.711727
791.58966,59.32403
791.772,60.163143
791.9543,60.680008
792.13666,59.380943
792.3191,60.096504
792.5015,60.157673
792.684,61.78978
792.8666,60.791466
793.0492,59.698063
793.2318,58.266567
793.4144,59.664078
793.59717,58.04909
793.7799,61.397327
793.96277,58.979885
794.14557,56.412624
794.3284,59.709118
794.51135,61.18289
794.69434,58.957867
794.8773,58.82545
795.0604,58.782795
795.24347,60.29708
795.42664,60.546978
795.60974,60.727554
795.793,60.33923
795.97626,60.42021
796.15955,59.104954
796.3429,60.481503
796.52625,62.063686
796.7097,58.681446
796.8932,62.996326
797.0767,60.115517
797.26025,60.098934
797.44385,60.205605
797.6275,61.082966
797.81116,61.376358
797.9949,60.690758
798.17865,60.130836
798.3624,61.31665
798.5463,60.330235
798.7302,60.546574
798.9142,59.75718
799.09814,60.79722
799.2821,60.757233
799.4662,57.110577
799.65027,58.27373
799.8345,61.0248
800.0187,58.09504
800.2029,54.954426
800.38715,56.60431
800.5715,59.795654
800.7558,58.831036
800.94025,58.96832
801.12463,58.771626
801.3092,59.46897
801.4937,59.769302
801.6783,59.367676
801.8629,59.32419
802.04755,59.872498
802.23224,60.101116
802.417,59.097713
802.60175,60.706917
802.78656,57.03889
802.9715,58.35898
803.1564,59.132263
803.3413,57.66719
803.5263,59.91355
803.71136,59.91088
803.8964,59.65995
804.0816,60.32654
804.2667,60.07629
804.45197,59.64704
804.6372,58.21888
804.8225,56.787445
805.0079,57.059196
805.19324,57.051796
805.37866,58.800755
805.5641,57.815628
805.74963,59.25583
805.9352,59.5426
806.1207,59.496624
806.3064,60.790165
806.49207,59.901157
806.67786,60.57086
806.8636,59.63129
807.0494,59.117447
807.2352,58.435932
807.42114,59.28886
807.60706,58.01289
807.7931,57.168034
807.97906,58.418232
808.16516,58.59132
808.3512,59.501995
808.5374,59.30046
808.7236,58.82957
808.9098,56.94782
809.09607,58.51491
809.2824,57.073082
809.4688,56.551067
809.6552,57.349617
809.8417,56.314625
810.0282,57.40928
810.2147,58.539104
810.40125,57.94679
810.5879,58.782238
810.77454,58.0915
810.9613,57.65493
811.148,58.307182
811.33484,57.69452
811.5216,58.011803
811.70856,58.81532
811.89545,57.794018
812.0824,57.092003
812.2694,57.406498
812.4565,59.68069
812.6436,58.040985
812.8307,60.15419
813.01794,57.488636
813.20514,58.523357
813.3924,58.82147
813.5797,58.05362
813.7671,58.098442
813.95447,58.56277
814.1419,58.12208
814.3294,57.56802
814.51697,58.98226
814.70447,57.171257
814.8921,59.02026
815.0798,58.789036
815.26746,58.004402
815.4552,58.029987
815.643,57.202904
815.8308,57.841736
816.0187,58.333965
816.20667,57.68644
816.3946,56.472168
816.5826,57.00765
816.7706,56.648067
816.95874,57.45408
817.14685,57.782673
817.335,57.044003
817.52325,57.75083
817.71155,58.483994
817.8998,58.821133
818.0882,58.00025
818.27655,58.71337
818.46497,58.5876
818.65344,55.98393
818.842,54.71673
819.0306,56.174572
819.2191,56.097843
819.40784,57.30771
819.5965,56.673817
819.7853,53.21049
819.974,51.808247
820.1629,54.58464
820.35175,56.595028
820.54065,57.89639
820.7296,58.632988
820.91864,58.59232
821.1077,56.904846
821.29675,56.03282
821.48596,56.812347
821.6751,56.789402
821.86426,55.783978
822.0535,58.017086
822.24286,55.350643
822.43225,53.65159
822.6216,53.931435
822.81104,56.968967
823.0005,57.44425
823.19006,58.431377
823.3796,56.713306
823.5692,56.254185
823.7589,56.832558
823.94855,56.026993
824.1383,56.341293
824.3281,55.44491
824.51794,54.065674
824.7078,57.39995
824.89777,59.034164
825.0877,57.3186
825.2777,59.08737
825.4678,57.113674
825.65784,57.36474
825.84796,54.868484
826.0382,54.75569
826.2284,57.102352
826.41864,57.85037
826.609,57.513977
826.7993,59.824062
826.98975,60.098732
827.1802,58.200916
827.3706,56.00951
827.5612,54.472427
827.7518,54.368595
827.9424,54.334057
828.133,57.663837
828.3237,55.369343
828.51447,58.65261
828.70526,61.36725
828.8961,56.853
829.08704,50.506126
829.27795,57.105667
829.46893,57.695557
829.66,57.184196
829.85095,58.550983
830.0421,55.399654
830.2332,56.338432
830.42444,55.78036
830.6156,56.671883
830.80695,55.362522
830.9982,55.266556
831.18964,55.595818
831.38104,55.822514
831.57245,55.385036
831.764,56.41262
831.95557,56.168915
832.1471,55.562283
832.33875,54.4893
832.53046,56.752037
832.72217,58.820637
832.9139,55.505432
833.10565,52.557247
833.29755,54.411434
833.48944,55.327503
833.68146,55.69526
833.87335,56.121414
834.0654,57.143536
834.2575,56.96551
834.4496,58.131516
834.6418,52.76941
834.834,49.38664
835.0262,57.5028
835.21857,57.269
835.4108,56.78704
835.6032,54.13989
835.7957,57.966396
835.9881,57.562916
836.18066,57.628002
836.3732,56.497692
836.5658,56.42317
836.7585,56.209915
836.9512,55.217342
837.14386,55.75485
837.33673,56.46602
837.5295,55.83891
837.72235,55.904194
837.9152,55.693157
838.1082,55.86087
838.3013,53.411583
838.4943,54.28491
838.6874,53.377583
838.88055,52.189224
839.0737,51.533062
839.2669,52.599014
839.46014,54.75175
839.6535,56.079346
839.84686,56.018265
840.0402,53.887486
840.2337,47.066006
840.42725,53.25801
840.6208,52.88385
840.81433,54.95113
841.008,54.880154
841.20166,55.350277
841.3953,56.020756
841.5892,55.6027
841.7829,51.542053
841.97675,55.937126
842.1707,53.659954
842.3646,55.217205
842.5586,55.093716
842.7526,53.62026
842.94666,55.70282
843.1408,52.508446
843.33496,44.763805
843.5292,52.17662
843.72345,53.89675
843.9178,51.22846
844.1121,52.79631
844.30646,53.437737
844.50085,53.88898
844.69543,56.05169
844.88983,55.783413
845.0845,56.978977
845.2791,54.858524
845.47375,50.62599
845.66846,54.27031
845.86316,55.485264
846.0579,56.083225
846.2528,59.56008
846.44763,59.665237
846.6426,54.446396
846.8376,53.36033
847.0326,53.585648
847.22766,51.33069
847.4227,52.06515
847.61786,52.99538
847.8131,54.25969
848.0083,56.059254
848.2036,55.629475
848.3989,54.775124
848.59436,54.382904
848.78973,54.64256
848.98517,54.97835
849.18066,57.09949
849.3763,56.71606
849.5719,51.006668
849.76746,50.496296
849.9632,47.382313
850.1589,43.992744
850.3547,51.828598
850.5505,52.301155
850.7464,47.04804
850.94226,50.694366
851.1383,55.925842
851.3343,55.02636
851.5303,52.947296
851.7264,53.382126
851.92255,52.31628
852.1188,53.486023
852.31494,53.356453
852.5112,52.620785
852.7075,54.600906
852.90393,53.60511
853.1003,53.183365
853.29675,53.82208
853.4933,54.83392
853.6898,53.719612
853.8864,52.439728
854.0831,47.471565
854.2798,42.77603
854.47644,35.285442
854.6732,37.071007
854.8701,44.545784
855.0669,47.68104
855.26385,49.38952
855.4608,52.564884
855.65784,53.097153
855.85486,53.80621
856.05194,53.8052
856.249,53.982536
856.4463,54.015175
856.64343,53.535576
856.8407,53.429436
857.0381,52.909966
857.2355,53.349453
857.4328,53.444546
857.63025,52.85772
857.8278,53.329544
858.02527,53.69998
858.22296,53.89035
858.4206,53.95487
858.6183,53.996227
858.81604,54.214886
859.0138,54.19752
859.21155,55.07221
859.40936,53.686375
859.6073,53.319965
859.8053,53.400085
860.0033,52.082867
860.20135,53.85093
860.3994,52.45703
860.59753,54.653088
860.7957,53.3648
860.99396,53.30228
861.19226,52.58778
861.3905,51.821407
861.589,50.987213
861.7873,52.572346
861.98584,55.986076
862.18427,54.175476
862.3828,53.76093
862.5814,54.71061
862.7801,53.29472
862.9788,53.75511
863.17755,55.528152
863.3763,54.778538
863.5751,53.608162
863.7739,53.269196
863.97284,53.286823
864.1719,52.651836
864.3708,53.402126
864.56995,54.381023
864.76904,54.75272
864.96814,55.10205
865.1673,51.592606
865.3666,54.265835
865.5658,53.68855
865.76514,50.843334
865.96454,54.00368
866.16394,46.8984
866.36346,41.357986
866.56287,37.098167
866.7625,37.504448
866.9621,48.36447
867.16174,49.785576
867.36145,50.380848
867.56116,52.918976
867.7609,49.722424
867.9608,50.713642
868.16064,52.37953
868.36066,52.06822
868.56055,53.45994
868.76056,53.12495
868.96063,50.50598
869.16077,49.168213
869.36096,48.184635
869.56116,51.1306
869.76135,53.207687
869.9616,51.4877
870.162,51.980995
870.3624,51.44017
870.5628,53.23915
870.7633,54.572605
870.96375,53.499184
871.16437,51.82474
871.36505,51.023003
871.5656,51.19048
871.7664,51.68799
871.9671,52.117413
872.16797,52.55082
872.3688,51.813858
872.56964,54.02858
872.7706,52.971348
872.97156,52.164642
873.17267,52.19676
873.3737,52.227413
873.5748,52.983837
873.776,52.13197
873.97723,50.36083
874.1785,50.793015
874.37976,51.015537
874.5812,51.376102
874.78253,51.782295
874.984,52.083836
875.1854,52.68041
875.387,52.06631
875.5887,52.371273
875.7902,58.572502
875.9919,55.882843
876.19366,50.50409
876.3954,47.956596
876.5973,59.63235
876.79913,52.541584
877.0011,40.506256
877.203,55.59326
877.40497,58.699432
877.60706,51.49119
877.8092,52.544796
878.01135,50.245407
878.2135,50.041756
878.4157,55.213886
878.61804,50.639503
878.82043,53.56879
879.02277,51.558784
879.2252,49.18996
879.4276,48.508183
879.6302,50.75167
879.8327,48.976757
880.03534,52.246353
880.238,51.503834
880.44073,51.66307
880.64343,50.997925
880.8463,47.334267
881.04913,45.691006
881.25195,46.361546
881.4549,49.986458
881.6579,51.055836
881.86096,52.412167
882.0641,53.089066
882.2672,53.8188
882.47034,66.86458
882.6735,64.04421
882.87683,21.133795
883.0801,42.393467
883.2835,62.869137
883.48694,60.385292
883.6903,53.90788
883.89386,50.130615
884.09735,51.332718
884.30096,53.51717
884.5046,50.70865
884.7083,52.037926
884.912,51.10461
885.11584,50.465584
885.31964,51.197906
885.52356,51.186386
885.7274,50.66028
885.93146,52.064655
886.13544,52.261906
886.33954,53.29492
886.54364,49.640594
886.74774,51.949886
886.95197,51.71833
887.15625,51.98237
887.36053,52.41323
887.5648,51.21569
887.7692,52.720108
887.97375,50.981216
888.1782,54.750084
888.3827,46.06746
888.5873,43.424263
888.792,49.97223
888.9966,53.10661
889.20135,55.100548
889.4061,50.0591
889.61096,51.93262
889.8158,51.502094
890.0207,50.714962
890.2257,52.98226
890.43066,53.959396
890.63574,51.74744
890.8408,54.134964
891.046,50.496212
891.25116,52.634144
891.4564,51.931828
891.66174,47.78666
891.867,58.66838
892.07245,61.96732
892.27783,48.70314
892.4833,55.62164
892.68884,51.776764
892.8944,51.372192
893.1,51.75251
893.30566,50.15323
893.5114,50.956573
893.71716,53.15873
893.92303,52.84285
894.1288,55.7025
894.3348,53.025227
894.5407,47.878567
894.7467,53.383846
894.95276,50.10251
895.1589,49.552578
895.36505,47.51861
895.57117,54.143143
895.77747,51.585228
895.9837,45.7604
896.19006,49.85703
896.39636,49.144264
896.60284,44.169586
896.80927,47.31846
897.0158,49.07955
897.22235,47.365845
897.429,47.188732
897.6356,48.47078
897.8424,50.517147
898.04913,52.272957
898.256,50.888943
898.46277,53.613785
898.66974,50.405365
898.87665,45.006443
899.0837,47.45445
899.2907,47.93519
899.49786,47.48288
899.70496,56.540672
899.9121,59.47842
900.1193,54.46482
900.32666,35.319824
900.534,41.23151
900.7414,52.03673
900.94885,49.24759
901.15625,49.197052
901.3638,48.380302
901.5714,48.307247
901.779,47.0236
901.98663,46.3529
902.19434,49.77314
902.40216,49.196712
902.61,44.265583
902.81775,47.041336
903.0257,50.444042
903.2337,52.55853
903.4417,54.557644
903.6497,59.162006
903.8578,57.02929
904.0659,51.204903
904.2741,51.627075
904.4824,52.440384
904.6906,55.76648
904.89905,56.541943
905.1074,52.43353
905.3158,47.009033
905.5243,52.365417
905.7328,54.03183
905.9414,53.864697
906.15,50.75743
906.3587,48.79259
906.5674,48.665825
906.7762,51.603836
906.98505,48.12245
907.19385,44.586678
907.40283,44.819405
907.6117,48.13778
907.8208,50.589005
908.0298,47.829514
908.23895,42.99429
908.44806,45.723095
908.65735,46.168045
908.8665,46.29701
909.07587,48.96436
909.28516,49.829063
909.4945,52.601517
909.704,35.591503
909.91345,0.0
